Frequency (Hz)
   0.0625
   0.1250
   0.1875
   0.2500
   0.3125
   0.3750
   0.4375
   0.5000
   0.5625
   0.6250
   0.6875
   0.7500
   0.8125
   0.8750
   0.9375
   1.0000
   1.0625
   1.1250
   1.1875
   1.2500
   1.3125
   1.3750
   1.4375
   1.5000
   1.5625
   1.6250
   1.6875
   1.7500
   1.8125
   1.8750
   1.9375
   2.0000
   2.0625
   2.1250
   2.1875
   2.2500
   2.3125
   2.3750
   2.4375
   2.5000
   2.5625
   2.6250
   2.6875
   2.7500
   2.8125
   2.8750
   2.9375
   3.0000
   3.0625
   3.1250
   3.1875
   3.2500
   3.3125
   3.3750
   3.4375
   3.5000
   3.5625
   3.6250
   3.6875
   3.7500
   3.8125
   3.8750
   3.9375
   4.0000
   4.0625
   4.1250
   4.1875
   4.2500
   4.3125
   4.3750
   4.4375
   4.5000
   4.5625
   4.6250
   4.6875
   4.7500
   4.8125
   4.8750
   4.9375
   5.0000
   5.0625
   5.1250
   5.1875
   5.2500
   5.3125
   5.3750
   5.4375
   5.5000
   5.5625
   5.6250
   5.6875
   5.7500
   5.8125
   5.8750
   5.9375
   6.0000
   6.0625
   6.1250
   6.1875
   6.2500
   6.3125
   6.3750
   6.4375
   6.5000
   6.5625
   6.6250
   6.6875
   6.7500
   6.8125
   6.8750
   6.9375
   7.0000
   7.0625
   7.1250
   7.1875
   7.2500
   7.3125
   7.3750
   7.4375
   7.5000
   7.5625
   7.6250
   7.6875
   7.7500
   7.8125
   7.8750
   7.9375
   8.0000
   8.0625
   8.1250
   8.1875
   8.2500
   8.3125
   8.3750
   8.4375
   8.5000
   8.5625
   8.6250
   8.6875
   8.7500
   8.8125
   8.8750
   8.9375
   9.0000
   9.0625
   9.1250
   9.1875
   9.2500
   9.3125
   9.3750
   9.4375
   9.5000
   9.5625
   9.6250
   9.6875
   9.7500
   9.8125
   9.8750
   9.9375
  10.0000
  10.0625
  10.1250
  10.1875
  10.2500
  10.3125
  10.3750
  10.4375
  10.5000
  10.5625
  10.6250
  10.6875
  10.7500
  10.8125
  10.8750
  10.9375
  11.0000
  11.0625
  11.1250
  11.1875
  11.2500
  11.3125
  11.3750
  11.4375
  11.5000
  11.5625
  11.6250
  11.6875
  11.7500
  11.8125
  11.8750
  11.9375
  12.0000
  12.0625
  12.1250
  12.1875
  12.2500
  12.3125
  12.3750
  12.4375
  12.5000
  12.5625
  12.6250
  12.6875
  12.7500
  12.8125
  12.8750
  12.9375
  13.0000
  13.0625
  13.1250
  13.1875
  13.2500
  13.3125
  13.3750
  13.4375
  13.5000
  13.5625
  13.6250
  13.6875
  13.7500
  13.8125
  13.8750
  13.9375
  14.0000
  14.0625
  14.1250
  14.1875
  14.2500
  14.3125
  14.3750
  14.4375
  14.5000
  14.5625
  14.6250
  14.6875
  14.7500
  14.8125
  14.8750
  14.9375
  15.0000
  15.0625
  15.1250
  15.1875
  15.2500
  15.3125
  15.3750
  15.4375
  15.5000
  15.5625
  15.6250
  15.6875
  15.7500
  15.8125
  15.8750
  15.9375
  16.0000
  16.0625
  16.1250
  16.1875
  16.2500
  16.3125
  16.3750
  16.4375
  16.5000
  16.5625
  16.6250
  16.6875
  16.7500
  16.8125
  16.8750
  16.9375
  17.0000
  17.0625
  17.1250
  17.1875
  17.2500
  17.3125
  17.3750
  17.4375
  17.5000
  17.5625
  17.6250
  17.6875
  17.7500
  17.8125
  17.8750
  17.9375
  18.0000
  18.0625
  18.1250
  18.1875
  18.2500
  18.3125
  18.3750
  18.4375
  18.5000
  18.5625
  18.6250
  18.6875
  18.7500
  18.8125
  18.8750
  18.9375
  19.0000
  19.0625
  19.1250
  19.1875
  19.2500
  19.3125
  19.3750
  19.4375
  19.5000
  19.5625
  19.6250
  19.6875
  19.7500
  19.8125
  19.8750
  19.9375
  20.0000
  20.0625
  20.1250
  20.1875
  20.2500
  20.3125
  20.3750
  20.4375
  20.5000
  20.5625
  20.6250
  20.6875
  20.7500
  20.8125
  20.8750
  20.9375
  21.0000
  21.0625
  21.1250
  21.1875
  21.2500
  21.3125
  21.3750
  21.4375
  21.5000
  21.5625
  21.6250
  21.6875
  21.7500
  21.8125
  21.8750
  21.9375
  22.0000
  22.0625
  22.1250
  22.1875
  22.2500
  22.3125
  22.3750
  22.4375
  22.5000
  22.5625
  22.6250
  22.6875
  22.7500
  22.8125
  22.8750
  22.9375
  23.0000
  23.0625
  23.1250
  23.1875
  23.2500
  23.3125
  23.3750
  23.4375
  23.5000
  23.5625
  23.6250
  23.6875
  23.7500
  23.8125
  23.8750
  23.9375
  24.0000
  24.0625
  24.1250
  24.1875
  24.2500
  24.3125
  24.3750
  24.4375
  24.5000
  24.5625
  24.6250
  24.6875
  24.7500
  24.8125
  24.8750
  24.9375
  25.0000
  25.0625
  25.1250
  25.1875
  25.2500
  25.3125
  25.3750
  25.4375
  25.5000
  25.5625
  25.6250
  25.6875
  25.7500
  25.8125
  25.8750
  25.9375
  26.0000
  26.0625
  26.1250
  26.1875
  26.2500
  26.3125
  26.3750
  26.4375
  26.5000
  26.5625
  26.6250
  26.6875
  26.7500
  26.8125
  26.8750
  26.9375
  27.0000
  27.0625
  27.1250
  27.1875
  27.2500
  27.3125
  27.3750
  27.4375
  27.5000
  27.5625
  27.6250
  27.6875
  27.7500
  27.8125
  27.8750
  27.9375
  28.0000
  28.0625
  28.1250
  28.1875
  28.2500
  28.3125
  28.3750
  28.4375
  28.5000
  28.5625
  28.6250
  28.6875
  28.7500
  28.8125
  28.8750
  28.9375
  29.0000
  29.0625
  29.1250
  29.1875
  29.2500
  29.3125
  29.3750
  29.4375
  29.5000
  29.5625
  29.6250
  29.6875
  29.7500
  29.8125
  29.8750
  29.9375
  30.0000
  30.0625
  30.1250
  30.1875
  30.2500
  30.3125
  30.3750
  30.4375
  30.5000
  30.5625
  30.6250
  30.6875
  30.7500
  30.8125
  30.8750
  30.9375
  31.0000
  31.0625
  31.1250
  31.1875
  31.2500
  31.3125
  31.3750
  31.4375
  31.5000
  31.5625
  31.6250
  31.6875
  31.7500
  31.8125
  31.8750
  31.9375
  32.0000
  32.0625
  32.1250
  32.1875
  32.2500
  32.3125
  32.3750
  32.4375
  32.5000
  32.5625
  32.6250
  32.6875
  32.7500
  32.8125
  32.8750
  32.9375
  33.0000
  33.0625
  33.1250
  33.1875
  33.2500
  33.3125
  33.3750
  33.4375
  33.5000
  33.5625
  33.6250
  33.6875
  33.7500
  33.8125
  33.8750
  33.9375
  34.0000
  34.0625
  34.1250
  34.1875
  34.2500
  34.3125
  34.3750
  34.4375
  34.5000
  34.5625
  34.6250
  34.6875
  34.7500
  34.8125
  34.8750
  34.9375
  35.0000
  35.0625
  35.1250
  35.1875
  35.2500
  35.3125
  35.3750
  35.4375
  35.5000
  35.5625
  35.6250
  35.6875
  35.7500
  35.8125
  35.8750
  35.9375
  36.0000
  36.0625
  36.1250
  36.1875
  36.2500
  36.3125
  36.3750
  36.4375
  36.5000
  36.5625
  36.6250
  36.6875
  36.7500
  36.8125
  36.8750
  36.9375
  37.0000
  37.0625
  37.1250
  37.1875
  37.2500
  37.3125
  37.3750
  37.4375
  37.5000
  37.5625
  37.6250
  37.6875
  37.7500
  37.8125
  37.8750
  37.9375
  38.0000
  38.0625
  38.1250
  38.1875
  38.2500
  38.3125
  38.3750
  38.4375
  38.5000
  38.5625
  38.6250
  38.6875
  38.7500
  38.8125
  38.8750
  38.9375
  39.0000
  39.0625
  39.1250
  39.1875
  39.2500
  39.3125
  39.3750
  39.4375
  39.5000
  39.5625
  39.6250
  39.6875
  39.7500
  39.8125
  39.8750
  39.9375
  40.0000
  40.0625
  40.1250
  40.1875
  40.2500
  40.3125
  40.3750
  40.4375
  40.5000
  40.5625
  40.6250
  40.6875
  40.7500
  40.8125
  40.8750
  40.9375
  41.0000
  41.0625
  41.1250
  41.1875
  41.2500
  41.3125
  41.3750
  41.4375
  41.5000
  41.5625
  41.6250
  41.6875
  41.7500
  41.8125
  41.8750
  41.9375
  42.0000
  42.0625
  42.1250
  42.1875
  42.2500
  42.3125
  42.3750
  42.4375
  42.5000
  42.5625
  42.6250
  42.6875
  42.7500
  42.8125
  42.8750
  42.9375
  43.0000
  43.0625
  43.1250
  43.1875
  43.2500
  43.3125
  43.3750
  43.4375
  43.5000
  43.5625
  43.6250
  43.6875
  43.7500
  43.8125
  43.8750
  43.9375
  44.0000
  44.0625
  44.1250
  44.1875
  44.2500
  44.3125
  44.3750
  44.4375
  44.5000
  44.5625
  44.6250
  44.6875
  44.7500
  44.8125
  44.8750
  44.9375
  45.0000
  45.0625
  45.1250
  45.1875
  45.2500
  45.3125
  45.3750
  45.4375
  45.5000
  45.5625
  45.6250
  45.6875
  45.7500
  45.8125
  45.8750
  45.9375
  46.0000
  46.0625
  46.1250
  46.1875
  46.2500
  46.3125
  46.3750
  46.4375
  46.5000
  46.5625
  46.6250
  46.6875
  46.7500
  46.8125
  46.8750
  46.9375
  47.0000
  47.0625
  47.1250
  47.1875
  47.2500
  47.3125
  47.3750
  47.4375
  47.5000
  47.5625
  47.6250
  47.6875
  47.7500
  47.8125
  47.8750
  47.9375
  48.0000
  48.0625
  48.1250
  48.1875
  48.2500
  48.3125
  48.3750
  48.4375
  48.5000
  48.5625
  48.6250
  48.6875
  48.7500
  48.8125
  48.8750
  48.9375
  49.0000
  49.0625
  49.1250
  49.1875
  49.2500
  49.3125
  49.3750
  49.4375
  49.5000
  49.5625
  49.6250
  49.6875
  49.7500
  49.8125
  49.8750
  49.9375
  50.0000
  50.0625
  50.1250
  50.1875
  50.2500
  50.3125
  50.3750
  50.4375
  50.5000
  50.5625
  50.6250
  50.6875
  50.7500
  50.8125
  50.8750
  50.9375
  51.0000
  51.0625
  51.1250
  51.1875
  51.2500
  51.3125
  51.3750
  51.4375
  51.5000
  51.5625
  51.6250
  51.6875
  51.7500
  51.8125
  51.8750
  51.9375
  52.0000
  52.0625
  52.1250
  52.1875
  52.2500
  52.3125
  52.3750
  52.4375
  52.5000
  52.5625
  52.6250
  52.6875
  52.7500
  52.8125
  52.8750
  52.9375
  53.0000
  53.0625
  53.1250
  53.1875
  53.2500
  53.3125
  53.3750
  53.4375
  53.5000
  53.5625
  53.6250
  53.6875
  53.7500
  53.8125
  53.8750
  53.9375
  54.0000
  54.0625
  54.1250
  54.1875
  54.2500
  54.3125
  54.3750
  54.4375
  54.5000
  54.5625
  54.6250
  54.6875
  54.7500
  54.8125
  54.8750
  54.9375
  55.0000
  55.0625
  55.1250
  55.1875
  55.2500
  55.3125
  55.3750
  55.4375
  55.5000
  55.5625
  55.6250
  55.6875
  55.7500
  55.8125
  55.8750
  55.9375
  56.0000
  56.0625
  56.1250
  56.1875
  56.2500
  56.3125
  56.3750
  56.4375
  56.5000
  56.5625
  56.6250
  56.6875
  56.7500
  56.8125
  56.8750
  56.9375
  57.0000
  57.0625
  57.1250
  57.1875
  57.2500
  57.3125
  57.3750
  57.4375
  57.5000
  57.5625
  57.6250
  57.6875
  57.7500
  57.8125
  57.8750
  57.9375
  58.0000
  58.0625
  58.1250
  58.1875
  58.2500
  58.3125
  58.3750
  58.4375
  58.5000
  58.5625
  58.6250
  58.6875
  58.7500
  58.8125
  58.8750
  58.9375
  59.0000
  59.0625
  59.1250
  59.1875
  59.2500
  59.3125
  59.3750
  59.4375
  59.5000
  59.5625
  59.6250
  59.6875
  59.7500
  59.8125
  59.8750
  59.9375
  60.0000
  60.0625
  60.1250
  60.1875
  60.2500
  60.3125
  60.3750
  60.4375
  60.5000
  60.5625
  60.6250
  60.6875
  60.7500
  60.8125
  60.8750
  60.9375
  61.0000
  61.0625
  61.1250
  61.1875
  61.2500
  61.3125
  61.3750
  61.4375
  61.5000
  61.5625
  61.6250
  61.6875
  61.7500
  61.8125
  61.8750
  61.9375
  62.0000
  62.0625
  62.1250
  62.1875
  62.2500
  62.3125
  62.3750
  62.4375
  62.5000
  62.5625
  62.6250
  62.6875
  62.7500
  62.8125
  62.8750
  62.9375
  63.0000
  63.0625
  63.1250
  63.1875
  63.2500
  63.3125
  63.3750
  63.4375
  63.5000
  63.5625
  63.6250
  63.6875
  63.7500
  63.8125
  63.8750
  63.9375
  64.0000
  64.0625
  64.1250
  64.1875
  64.2500
  64.3125
  64.3750
  64.4375
  64.5000
  64.5625
  64.6250
  64.6875
  64.7500
  64.8125
  64.8750
  64.9375
  65.0000
  65.0625
  65.1250
  65.1875
  65.2500
  65.3125
  65.3750
  65.4375
  65.5000
  65.5625
  65.6250
  65.6875
  65.7500
  65.8125
  65.8750
  65.9375
  66.0000
  66.0625
  66.1250
  66.1875
  66.2500
  66.3125
  66.3750
  66.4375
  66.5000
  66.5625
  66.6250
  66.6875
  66.7500
  66.8125
  66.8750
  66.9375
  67.0000
  67.0625
  67.1250
  67.1875
  67.2500
  67.3125
  67.3750
  67.4375
  67.5000
  67.5625
  67.6250
  67.6875
  67.7500
  67.8125
  67.8750
  67.9375
  68.0000
  68.0625
  68.1250
  68.1875
  68.2500
  68.3125
  68.3750
  68.4375
  68.5000
  68.5625
  68.6250
  68.6875
  68.7500
  68.8125
  68.8750
  68.9375
  69.0000
  69.0625
  69.1250
  69.1875
  69.2500
  69.3125
  69.3750
  69.4375
  69.5000
  69.5625
  69.6250
  69.6875
  69.7500
  69.8125
  69.8750
  69.9375
  70.0000
  70.0625
  70.1250
  70.1875
  70.2500
  70.3125
  70.3750
  70.4375
  70.5000
  70.5625
  70.6250
  70.6875
  70.7500
  70.8125
  70.8750
  70.9375
  71.0000
  71.0625
  71.1250
  71.1875
  71.2500
  71.3125
  71.3750
  71.4375
  71.5000
  71.5625
  71.6250
  71.6875
  71.7500
  71.8125
  71.8750
  71.9375
  72.0000
  72.0625
  72.1250
  72.1875
  72.2500
  72.3125
  72.3750
  72.4375
  72.5000
  72.5625
  72.6250
  72.6875
  72.7500
  72.8125
  72.8750
  72.9375
  73.0000
  73.0625
  73.1250
  73.1875
  73.2500
  73.3125
  73.3750
  73.4375
  73.5000
  73.5625
  73.6250
  73.6875
  73.7500
  73.8125
  73.8750
  73.9375
  74.0000
  74.0625
  74.1250
  74.1875
  74.2500
  74.3125
  74.3750
  74.4375
  74.5000
  74.5625
  74.6250
  74.6875
  74.7500
  74.8125
  74.8750
  74.9375
  75.0000
  75.0625
  75.1250
  75.1875
  75.2500
  75.3125
  75.3750
  75.4375
  75.5000
  75.5625
  75.6250
  75.6875
  75.7500
  75.8125
  75.8750
  75.9375
  76.0000
  76.0625
  76.1250
  76.1875
  76.2500
  76.3125
  76.3750
  76.4375
  76.5000
  76.5625
  76.6250
  76.6875
  76.7500
  76.8125
  76.8750
  76.9375
  77.0000
  77.0625
  77.1250
  77.1875
  77.2500
  77.3125
  77.3750
  77.4375
  77.5000
  77.5625
  77.6250
  77.6875
  77.7500
  77.8125
  77.8750
  77.9375
  78.0000
  78.0625
  78.1250
  78.1875
  78.2500
  78.3125
  78.3750
  78.4375
  78.5000
  78.5625
  78.6250
  78.6875
  78.7500
  78.8125
  78.8750
  78.9375
  79.0000
  79.0625
  79.1250
  79.1875
  79.2500
  79.3125
  79.3750
  79.4375
  79.5000
  79.5625
  79.6250
  79.6875
  79.7500
  79.8125
  79.8750
  79.9375
  80.0000
  80.0625
  80.1250
  80.1875
  80.2500
  80.3125
  80.3750
  80.4375
  80.5000
  80.5625
  80.6250
  80.6875
  80.7500
  80.8125
  80.8750
  80.9375
  81.0000
  81.0625
  81.1250
  81.1875
  81.2500
  81.3125
  81.3750
  81.4375
  81.5000
  81.5625
  81.6250
  81.6875
  81.7500
  81.8125
  81.8750
  81.9375
  82.0000
  82.0625
  82.1250
  82.1875
  82.2500
  82.3125
  82.3750
  82.4375
  82.5000
  82.5625
  82.6250
  82.6875
  82.7500
  82.8125
  82.8750
  82.9375
  83.0000
  83.0625
  83.1250
  83.1875
  83.2500
  83.3125
  83.3750
  83.4375
  83.5000
  83.5625
  83.6250
  83.6875
  83.7500
  83.8125
  83.8750
  83.9375
  84.0000
  84.0625
  84.1250
  84.1875
  84.2500
  84.3125
  84.3750
  84.4375
  84.5000
  84.5625
  84.6250
  84.6875
  84.7500
  84.8125
  84.8750
  84.9375
  85.0000
  85.0625
  85.1250
  85.1875
  85.2500
  85.3125
  85.3750
  85.4375
  85.5000
  85.5625
  85.6250
  85.6875
  85.7500
  85.8125
  85.8750
  85.9375
  86.0000
  86.0625
  86.1250
  86.1875
  86.2500
  86.3125
  86.3750
  86.4375
  86.5000
  86.5625
  86.6250
  86.6875
  86.7500
  86.8125
  86.8750
  86.9375
  87.0000
  87.0625
  87.1250
  87.1875
  87.2500
  87.3125
  87.3750
  87.4375
  87.5000
  87.5625
  87.6250
  87.6875
  87.7500
  87.8125
  87.8750
  87.9375
  88.0000
  88.0625
  88.1250
  88.1875
  88.2500
  88.3125
  88.3750
  88.4375
  88.5000
  88.5625
  88.6250
  88.6875
  88.7500
  88.8125
  88.8750
  88.9375
  89.0000
  89.0625
  89.1250
  89.1875
  89.2500
  89.3125
  89.3750
  89.4375
  89.5000
  89.5625
  89.6250
  89.6875
  89.7500
  89.8125
  89.8750
  89.9375
  90.0000
  90.0625
  90.1250
  90.1875
  90.2500
  90.3125
  90.3750
  90.4375
  90.5000
  90.5625
  90.6250
  90.6875
  90.7500
  90.8125
  90.8750
  90.9375
  91.0000
  91.0625
  91.1250
  91.1875
  91.2500
  91.3125
  91.3750
  91.4375
  91.5000
  91.5625
  91.6250
  91.6875
  91.7500
  91.8125
  91.8750
  91.9375
  92.0000
  92.0625
  92.1250
  92.1875
  92.2500
  92.3125
  92.3750
  92.4375
  92.5000
  92.5625
  92.6250
  92.6875
  92.7500
  92.8125
  92.8750
  92.9375
  93.0000
  93.0625
  93.1250
  93.1875
  93.2500
  93.3125
  93.3750
  93.4375
  93.5000
  93.5625
  93.6250
  93.6875
  93.7500
  93.8125
  93.8750
  93.9375
  94.0000
  94.0625
  94.1250
  94.1875
  94.2500
  94.3125
  94.3750
  94.4375
  94.5000
  94.5625
  94.6250
  94.6875
  94.7500
  94.8125
  94.8750
  94.9375
  95.0000
  95.0625
  95.1250
  95.1875
  95.2500
  95.3125
  95.3750
  95.4375
  95.5000
  95.5625
  95.6250
  95.6875
  95.7500
  95.8125
  95.8750
  95.9375
  96.0000
  96.0625
  96.1250
  96.1875
  96.2500
  96.3125
  96.3750
  96.4375
  96.5000
  96.5625
  96.6250
  96.6875
  96.7500
  96.8125
  96.8750
  96.9375
  97.0000
  97.0625
  97.1250
  97.1875
  97.2500
  97.3125
  97.3750
  97.4375
  97.5000
  97.5625
  97.6250
  97.6875
  97.7500
  97.8125
  97.8750
  97.9375
  98.0000
  98.0625
  98.1250
  98.1875
  98.2500
  98.3125
  98.3750
  98.4375
  98.5000
  98.5625
  98.6250
  98.6875
  98.7500
  98.8125
  98.8750
  98.9375
  99.0000
  99.0625
  99.1250
  99.1875
  99.2500
  99.3125
  99.3750
  99.4375
  99.5000
  99.5625
  99.6250
  99.6875
  99.7500
  99.8125
  99.8750
  99.9375
 100.0000
 100.0625
 100.1250
 100.1875
 100.2500
 100.3125
 100.3750
 100.4375
 100.5000
 100.5625
 100.6250
 100.6875
 100.7500
 100.8125
 100.8750
 100.9375
 101.0000
 101.0625
 101.1250
 101.1875
 101.2500
 101.3125
 101.3750
 101.4375
 101.5000
 101.5625
 101.6250
 101.6875
 101.7500
 101.8125
 101.8750
 101.9375
 102.0000
 102.0625
 102.1250
 102.1875
 102.2500
 102.3125
 102.3750
 102.4375
 102.5000
 102.5625
 102.6250
 102.6875
 102.7500
 102.8125
 102.8750
 102.9375
 103.0000
 103.0625
 103.1250
 103.1875
 103.2500
 103.3125
 103.3750
 103.4375
 103.5000
 103.5625
 103.6250
 103.6875
 103.7500
 103.8125
 103.8750
 103.9375
 104.0000
 104.0625
 104.1250
 104.1875
 104.2500
 104.3125
 104.3750
 104.4375
 104.5000
 104.5625
 104.6250
 104.6875
 104.7500
 104.8125
 104.8750
 104.9375
 105.0000
 105.0625
 105.1250
 105.1875
 105.2500
 105.3125
 105.3750
 105.4375
 105.5000
 105.5625
 105.6250
 105.6875
 105.7500
 105.8125
 105.8750
 105.9375
 106.0000
 106.0625
 106.1250
 106.1875
 106.2500
 106.3125
 106.3750
 106.4375
 106.5000
 106.5625
 106.6250
 106.6875
 106.7500
 106.8125
 106.8750
 106.9375
 107.0000
 107.0625
 107.1250
 107.1875
 107.2500
 107.3125
 107.3750
 107.4375
 107.5000
 107.5625
 107.6250
 107.6875
 107.7500
 107.8125
 107.8750
 107.9375
 108.0000
 108.0625
 108.1250
 108.1875
 108.2500
 108.3125
 108.3750
 108.4375
 108.5000
 108.5625
 108.6250
 108.6875
 108.7500
 108.8125
 108.8750
 108.9375
 109.0000
 109.0625
 109.1250
 109.1875
 109.2500
 109.3125
 109.3750
 109.4375
 109.5000
 109.5625
 109.6250
 109.6875
 109.7500
 109.8125
 109.8750
 109.9375
 110.0000
 110.0625
 110.1250
 110.1875
 110.2500
 110.3125
 110.3750
 110.4375
 110.5000
 110.5625
 110.6250
 110.6875
 110.7500
 110.8125
 110.8750
 110.9375
 111.0000
 111.0625
 111.1250
 111.1875
 111.2500
 111.3125
 111.3750
 111.4375
 111.5000
 111.5625
 111.6250
 111.6875
 111.7500
 111.8125
 111.8750
 111.9375
 112.0000
 112.0625
 112.1250
 112.1875
 112.2500
 112.3125
 112.3750
 112.4375
 112.5000
 112.5625
 112.6250
 112.6875
 112.7500
 112.8125
 112.8750
 112.9375
 113.0000
 113.0625
 113.1250
 113.1875
 113.2500
 113.3125
 113.3750
 113.4375
 113.5000
 113.5625
 113.6250
 113.6875
 113.7500
 113.8125
 113.8750
 113.9375
 114.0000
 114.0625
 114.1250
 114.1875
 114.2500
 114.3125
 114.3750
 114.4375
 114.5000
 114.5625
 114.6250
 114.6875
 114.7500
 114.8125
 114.8750
 114.9375
 115.0000
 115.0625
 115.1250
 115.1875
 115.2500
 115.3125
 115.3750
 115.4375
 115.5000
 115.5625
 115.6250
 115.6875
 115.7500
 115.8125
 115.8750
 115.9375
 116.0000
 116.0625
 116.1250
 116.1875
 116.2500
 116.3125
 116.3750
 116.4375
 116.5000
 116.5625
 116.6250
 116.6875
 116.7500
 116.8125
 116.8750
 116.9375
 117.0000
 117.0625
 117.1250
 117.1875
 117.2500
 117.3125
 117.3750
 117.4375
 117.5000
 117.5625
 117.6250
 117.6875
 117.7500
 117.8125
 117.8750
 117.9375
 118.0000
 118.0625
 118.1250
 118.1875
 118.2500
 118.3125
 118.3750
 118.4375
 118.5000
 118.5625
 118.6250
 118.6875
 118.7500
 118.8125
 118.8750
 118.9375
 119.0000
 119.0625
 119.1250
 119.1875
 119.2500
 119.3125
 119.3750
 119.4375
 119.5000
 119.5625
 119.6250
 119.6875
 119.7500
 119.8125
 119.8750
 119.9375
 120.0000
 120.0625
 120.1250
 120.1875
 120.2500
 120.3125
 120.3750
 120.4375
 120.5000
 120.5625
 120.6250
 120.6875
 120.7500
 120.8125
 120.8750
 120.9375
 121.0000
 121.0625
 121.1250
 121.1875
 121.2500
 121.3125
 121.3750
 121.4375
 121.5000
 121.5625
 121.6250
 121.6875
 121.7500
 121.8125
 121.8750
 121.9375
 122.0000
 122.0625
 122.1250
 122.1875
 122.2500
 122.3125
 122.3750
 122.4375
 122.5000
 122.5625
 122.6250
 122.6875
 122.7500
 122.8125
 122.8750
 122.9375
 123.0000
 123.0625
 123.1250
 123.1875
 123.2500
 123.3125
 123.3750
 123.4375
 123.5000
 123.5625
 123.6250
 123.6875
 123.7500
 123.8125
 123.8750
 123.9375
 124.0000
 124.0625
 124.1250
 124.1875
 124.2500
 124.3125
 124.3750
 124.4375
 124.5000
 124.5625
 124.6250
 124.6875
 124.7500
 124.8125
 124.8750
